# Energy of the discrete level (162Dy)
# [keV]
0000.000
0080.661
0265.664
0548.520
0888.161
0921.280
0962.940
1060.991
1148.232
1182.763
1210.089
1275.772
1297.006
1324.465
1357.928
1375.080
1390.513
1400.260
1453.468
1485.671
1490.390
1518.426
1530.127
1535.664
1570.912
1574.293
1575.623
1634.415
1637.196
1652.095
1666.270
1669.085
1670.505
1683.350
1691.340
1728.318
1738.999
1745.716
1751.881
1754.820
1766.608
1775.025
1782.680
1807.560
1826.753
1833.250
1840.486
1845.530
1851.811
1862.677
1863.830
1878.050
1886.820
1891.545
1895.420
1901.100
1904.130
1910.430
1913.680
1939.650
1951.391
1959.360
1963.598
1974.100
1982.460
1985.880
1999.330
2000.700
2009.796
2040.970
2044.225
2047.000
2053.541
2065.790
2071.950
2079.000
2080.030
2087.490
2100.660
2102.800
2107.090
2110.700
2112.600
2120.717
2125.212
2128.600
2133.999
2138.500
2148.681
2163.300
2174.610
2181.000
2185.220
2189.710
2199.200
2203.000
2207.500
2211.590
2215.600
2230.750
2234.180
2239.400
2245.600
2262.300
2269.500
2276.000
2280.500
2281.940
2283.000
2291.400
2293.872
2295.745
2299.090
2311.300
2314.100
2318.200
2324.850
2330.950
2337.350
2338.700
2344.400
2348.800
2351.000
2355.700
2362.940
2369.100
2371.300
2374.000
2375.600
2381.400
2386.300
2394.850
2398.270
2403.400
2413.100
2421.000
2427.900
2437.100
2451.800
2455.000
2457.000
2459.000
2469.700
2480.200
2482.340
2483.700
2488.300
2491.650
2494.400
2503.830
2506.000
2510.300
2513.600
2520.400
2524.100
2529.400
2534.860
2537.400
2551.300
2554.300
2562.000
2565.200
2569.400
2579.600
2584.000
2601.320
2614.800
2617.300
2622.780
2626.800
2630.600
2641.600
2647.000
2655.500
2663.000
2670.650
2680.600
2682.590
2688.500
2697.000
2704.000
2708.900
2718.200
2726.000
2730.600
2742.200
2750.800
2755.000
2768.700
2777.990
2779.800
2785.000
2788.800
2800.000
2802.700
2812.000
2815.000
2817.000
2818.200
2847.000
2848.400
2859.630
2861.500
2880.000
2900.000
2909.400
2919.550
2929.400
2932.275
2934.550
2940.400
2950.000
2959.800
2963.940
2965.000
2971.800
2989.200
2997.000
3012.300
3019.000
3029.300
3040.300
3052.820
3061.200
3070.800
3085.800
3105.900
3115.700
3123.250
3127.000
3138.550
3142.565
3145.630
3148.770
3151.900
3171.400
3187.800
3241.000
3269.000
3293.210
3303.000
3373.940
3415.950
3434.040
3474.840
3564.220
3577.000
3627.260
3666.920
3734.230
3830.930
3835.000
3874.280
3878.370
3966.650
4037.240
4039.640
4195.560
4243.520
4342.530
4434.600
4516.280
4568.760
4577.730
4650.550
4873.420
5061.800
5221.060
5352.000
5554.130
5747.200
5920.900
6153.200
6488.700
7276.000
